File: KHU_project/ITOwide/wide_pe160
Dataset wide:2(ito)
Dwell Time (s)	0.100000
Number of sweeps	3
Kinetic Energy(eV)	Binding Energy(eV)	Intensity(cps)	Transmission Value
286.69	1200	9943.33	5.684839
291.19	1195.5	9786.67	5.703692
295.69	1191	10120	5.722545
300.19	1186.5	9783.33	5.741397
304.69	1182	9676.67	5.760250
309.19	1177.5	9686.67	5.779103
313.69	1173	9606.67	5.797956
318.19	1168.5	9730	5.816809
322.69	1164	10173.3	5.835662
327.19	1159.5	10136.7	5.854515
331.69	1155	9976.67	5.880232
336.19	1150.5	10000	5.908046
340.69	1146	9763.33	5.935860
345.19	1141.5	9560	5.963674
349.69	1137	9233.33	5.991488
354.19	1132.5	8910	6.019302
358.69	1128	8860	6.047116
363.19	1123.5	8706.67	6.074930
367.69	1119	8913.33	6.102744
372.19	1114.5	8826.67	6.130558
376.69	1110	9193.33	6.158372
381.19	1105.5	9253.33	6.186186
385.69	1101	9256.67	6.214000
390.19	1096.5	9306.67	6.241814
394.69	1092	9886.67	6.269628
399.19	1087.5	12753.3	6.297442
403.69	1083	11446.7	6.325256
408.19	1078.5	10850	6.353070
412.69	1074	7706.67	6.380884
417.19	1069.5	7316.67	6.408698
421.69	1065	7653.33	6.436512
426.19	1060.5	7836.67	6.464326
430.69	1056	7253.33	6.492140
435.19	1051.5	7063.33	6.519954
439.69	1047	7130	6.547768
444.19	1042.5	7133.33	6.575582
448.69	1038	7203.33	6.603396
453.19	1033.5	7323.33	6.631210
457.69	1029	7363.33	6.658895
462.19	1024.5	7480	6.686359
466.69	1020	7740	6.713823
471.19	1015.5	7640	6.741287
475.69	1011	8013.33	6.768751
480.19	1006.5	7846.67	6.796215
484.69	1002	7946.67	6.823679
489.19	997.5	8450	6.851143
493.69	993	8670	6.878607
498.19	988.5	8206.67	6.906071
502.69	984	8156.67	6.933535
507.19	979.5	8570	6.960999
511.69	975	10406.7	6.988463
516.19	970.5	8733.33	7.015927
520.69	966	7960	7.043390
525.19	961.5	7600	7.070854
529.69	957	7410	7.098318
534.19	952.5	7763.33	7.125782
538.69	948	7473.33	7.153246
543.19	943.5	7513.33	7.180710
547.69	939	7940	7.208174
552.19	934.5	8053.33	7.235638
556.69	930	8050	7.263102
561.19	925.5	8036.67	7.290566
565.69	921	8106.67	7.318030
570.19	916.5	8460	7.345494
574.69	912	8426.67	7.372958
579.19	907.5	8550	7.400422
583.69	903	8546.67	7.427886
588.19	898.5	8713.33	7.455350
592.69	894	8716.67	7.482814
597.19	889.5	8756.67	7.510278
601.69	885	8900	7.537742
606.19	880.5	9000	7.565206
610.69	876	9343.33	7.592670
615.19	871.5	9406.67	7.620133
619.69	867	9320	7.647597
624.19	862.5	9290	7.675061
628.69	858	9500	7.702525
633.19	853.5	9473.33	7.729989
637.69	849	9740	7.757453
642.19	844.5	10103.3	7.784917
646.69	840	9973.33	7.812381
651.19	835.5	10016.7	7.839845
655.69	831	10833.3	7.867309
660.19	826.5	11176.7	7.894773
664.69	822	10293.3	7.922237
669.19	817.5	10256.7	7.941764
673.69	813	10040	7.960834
678.19	808.5	10146.7	7.979905
682.69	804	10393.3	7.998976
687.19	799.5	10346.7	8.018046
691.69	795	10560	8.037117
696.19	790.5	10346.7	8.056188
700.69	786	10753.3	8.075258
705.19	781.5	10750	8.094329
709.69	777	11006.7	8.113400
714.19	772.5	10816.7	8.132470
718.69	768	11163.3	8.151541
723.19	763.5	11330	8.170612
727.69	759	11816.7	8.189682
732.19	754.5	11390	8.208753
736.69	750	11663.3	8.227823
741.19	745.5	11730	8.246894
745.69	741	11776.7	8.265965
750.19	736.5	12080	8.285035
754.69	732	11856.7	8.304106
759.19	727.5	12336.7	8.323177
763.69	723	12723.3	8.342247
768.19	718.5	13470	8.361318
772.69	714	12810	8.380389
777.19	709.5	12793.3	8.399459
781.69	705	17443.3	8.418530
786.19	700.5	13403.3	8.437601
790.69	696	11986.7	8.456671
795.19	691.5	12383.3	8.475742
799.69	687	12243.3	8.494813
804.19	682.5	12813.3	8.513883
808.69	678	12330	8.532954
813.19	673.5	11880	8.552025
817.69	669	15456.7	8.571095
822.19	664.5	20590	8.590166
826.69	660	11506.7	8.609237
831.19	655.5	10583.3	8.628307
835.69	651	10570	8.647378
840.19	646.5	10666.7	8.666449
844.69	642	10513.3	8.685519
849.19	637.5	10723.3	8.704590
853.69	633	10473.3	8.723661
858.19	628.5	10670	8.742731
862.69	624	10963.3	8.761802
867.19	619.5	11223.3	8.780873
871.69	615	11403.3	8.799943
876.19	610.5	10956.7	8.819014
880.69	606	11333.3	8.838085
885.19	601.5	11150	8.857155
889.69	597	11850	8.871047
894.19	592.5	11690	8.882133
898.69	588	11756.7	8.893219
903.19	583.5	11990	8.904305
907.69	579	12486.7	8.915391
912.19	574.5	12326.7	8.926477
916.69	570	12940	8.937563
921.19	565.5	12803.3	8.948649
925.69	561	12753.3	8.959735
930.19	556.5	13090	8.970821
934.69	552	13510	8.981907
939.19	547.5	13653.3	8.992993
943.69	543	13023.3	9.004079
948.19	538.5	12520	9.015165
952.69	534	13030	9.026251
957.19	529.5	23576.7	9.037337
961.69	525	12283.3	9.048423
966.19	520.5	12143.3	9.059509
970.69	516	12263.3	9.070595
975.19	511.5	12420	9.081681
979.69	507	12736.7	9.092767
984.19	502.5	13140	9.103853
988.69	498	13220	9.114939
993.19	493.5	13803.3	9.126025
997.69	489	13850	9.137111
1002.19	484.5	12976.7	9.148197
1006.69	480	12740	9.159283
1011.19	475.5	13063.3	9.170369
1015.69	471	13953.3	9.181455
1020.19	466.5	13826.7	9.192541
1024.69	462	13476.7	9.203627
1029.19	457.5	11286.7	9.214713
1033.69	453	48323.3	9.225799
1038.19	448.5	8700	9.239781
1042.69	444	61136.7	9.254946
1047.19	439.5	3320	9.270111
1051.69	435	2280	9.285276
1056.19	430.5	2376.67	9.300441
1060.69	426	2056.67	9.315607
1065.19	421.5	2266.67	9.330772
1069.69	417	2223.33	9.345937
1074.19	412.5	2180	9.361102
1078.69	408	2326.67	9.376267
1083.19	403.5	2153.33	9.391432
1087.69	399	2410	9.406597
1092.19	394.5	2276.67	9.421762
1096.69	390	2196.67	9.436927
1101.19	385.5	2340	9.452092
1105.69	381	2323.33	9.467257
1110.19	376.5	2456.67	9.482422
1114.69	372	2546.67	9.497587
1119.19	367.5	2250	9.512752
1123.69	363	2450	9.527917
1128.19	358.5	2470	9.543082
1132.69	354	2413.33	9.558247
1137.19	349.5	2666.67	9.573412
1141.69	345	2503.33	9.588577
1146.19	340.5	2600	9.603742
1150.69	336	2553.33	9.618907
1155.19	331.5	2723.33	9.634072
1159.69	327	2693.33	9.649237
1164.19	322.5	2636.67	9.664402
1168.69	318	2756.67	9.679567
1173.19	313.5	2866.67	9.694732
1177.69	309	2940	9.709897
1182.19	304.5	2943.33	9.725062
1186.69	300	2913.33	9.740227
1191.19	295.5	2963.33	9.755392
1195.69	291	2976.67	9.770557
1200.19	286.5	3736.67	9.785722
1204.69	282	2960	9.800887
1209.19	277.5	2973.33	9.816052
1213.69	273	2986.67	9.831217
1218.19	268.5	3223.33	9.846382
1222.69	264	3030	9.861547
1227.19	259.5	3036.67	9.876712
1231.69	255	3273.33	9.891877
1236.19	250.5	3336.67	9.907320
1240.69	246	3216.67	9.927491
1245.19	241.5	3086.67	9.947662
1249.69	237	3350	9.967833
1254.19	232.5	3360	9.988004
1258.69	228	3353.33	10.0082
1263.19	223.5	3243.33	10.0283
1267.69	219	3506.67	10.0485
1272.19	214.5	3540	10.0687
1276.69	210	3383.33	10.0889
1281.19	205.5	3516.67	10.109
1285.69	201	3670	10.1292
1290.19	196.5	3606.67	10.1494
1294.69	192	3733.33	10.1695
1299.19	187.5	3973.33	10.1897
1303.69	183	3843.33	10.2099
1308.19	178.5	3770	10.2301
1312.69	174	3943.33	10.2502
1317.19	169.5	3953.33	10.2704
1321.69	165	3990	10.2906
1326.19	160.5	4100	10.3107
1330.69	156	4193.33	10.3312
1335.19	151.5	4173.33	10.3525
1339.69	147	4383.33	10.3738
1344.19	142.5	4416.67	10.3951
1348.69	138	4703.33	10.4164
1353.19	133.5	4523.33	10.4377
1357.69	129	4560	10.4589
1362.19	124.5	5983.33	10.4802
1366.69	120	4803.33	10.5015
1371.19	115.5	4410	10.5228
1375.69	111	4493.33	10.5441
1380.19	106.5	4693.33	10.5654
1384.69	102	4760	10.5867
1389.19	97.5	4753.33	10.608
1393.69	93	5050	10.6292
1398.19	88.5	5773.33	10.6505
1402.69	84	5940	10.6718
1407.19	79.5	6530	10.6931
1411.69	75	5146.67	10.7144
1416.19	70.5	3490	10.7357
1420.69	66	2723.33	10.757
1425.19	61.5	2626.67	10.7782
1429.69	57	2556.67	10.7995
1434.19	52.5	2470	10.8208
1438.69	48	2773.33	10.8421
1443.19	43.5	2906.67	10.8634
1447.69	39	2986.67	10.8847
1452.19	34.5	3063.33	10.906
1456.69	30	2640	10.9273
1461.19	25.5	3723.33	10.9485
1465.69	21	4253.33	10.9559
1470.19	16.5	8180	10.9559
1474.69	12	400	10.9559
1479.19	7.500000	976.667	10.9559
1483.69	3.000000	540	10.9559
1488.19	-1.500000	23.3333	10.9559
1491.69	-5.000000	0.000000	10.9559