File: KHU_project/ITOwide/wide_pe40
Dataset wide_40:4(ito)
Dwell Time (s)	0.100000
Number of sweeps	20
Kinetic Energy(eV)	Binding Energy(eV)	Intensity(cps)	Transmission Value
286.69	1200	3069	1.640891
291.19	1195.5	3289	1.635590
295.69	1191	3397	1.630288
300.19	1186.5	3322.5	1.624987
304.69	1182	3253.5	1.619685
309.19	1177.5	3222.5	1.614384
313.69	1173	3385.5	1.609082
318.19	1168.5	3426	1.603781
322.69	1164	3543.5	1.598479
327.19	1159.5	3578.5	1.593178
331.69	1155	3617	1.591559
336.19	1150.5	3657.5	1.591065
340.69	1146	3662.5	1.590572
345.19	1141.5	3547	1.590078
349.69	1137	3483	1.589585
354.19	1132.5	3315	1.589091
358.69	1128	3385	1.588598
363.19	1123.5	3455.5	1.588104
367.69	1119	3462	1.587610
372.19	1114.5	3533.5	1.587117
376.69	1110	3705	1.586623
381.19	1105.5	3768.5	1.586130
385.69	1101	3822	1.585636
390.19	1096.5	3814.5	1.585142
394.69	1092	4154	1.584649
399.19	1087.5	5625	1.584155
403.69	1083	4793.5	1.583662
408.19	1078.5	4676.5	1.583168
412.69	1074	3275.5	1.582675
417.19	1069.5	3217	1.582181
421.69	1065	3272	1.581687
426.19	1060.5	3496.5	1.581194
430.69	1056	3228	1.580700
435.19	1051.5	3238	1.580207
439.69	1047	3152	1.579713
444.19	1042.5	3198.5	1.579219
448.69	1038	3249	1.578726
453.19	1033.5	3402	1.578232
457.69	1029	3378	1.577790
462.19	1024.5	3559.5	1.577437
466.69	1020	3541	1.577083
471.19	1015.5	3665.5	1.576730
475.69	1011	3715	1.576376
480.19	1006.5	3769	1.576023
484.69	1002	3868	1.575669
489.19	997.5	4051.5	1.575316
493.69	993	4100.5	1.574962
498.19	988.5	3990	1.574609
502.69	984	4040	1.574255
507.19	979.5	4185	1.573902
511.69	975	5245.5	1.573548
516.19	970.5	4254.5	1.573195
520.69	966	3960	1.572841
525.19	961.5	3801	1.572488
529.69	957	3874.5	1.572134
534.19	952.5	3993	1.571781
538.69	948	4011	1.571427
543.19	943.5	4059	1.571074
547.69	939	4027	1.570720
552.19	934.5	4211	1.570366
556.69	930	4233	1.570013
561.19	925.5	4342.5	1.569659
565.69	921	4304.5	1.569306
570.19	916.5	4426	1.568952
574.69	912	4514	1.568599
579.19	907.5	4504	1.568245
583.69	903	4590.5	1.567892
588.19	898.5	4681.5	1.567538
592.69	894	4786.5	1.567185
597.19	889.5	4838.5	1.566831
601.69	885	4774.5	1.566478
606.19	880.5	4809	1.566124
610.69	876	4908	1.565771
615.19	871.5	5064	1.565417
619.69	867	5021	1.565064
624.19	862.5	5079	1.564710
628.69	858	5142	1.564357
633.19	853.5	5345	1.564003
637.69	849	5448	1.563650
642.19	844.5	5435.5	1.563296
646.69	840	5550	1.562943
651.19	835.5	5636.5	1.562589
655.69	831	5956	1.562236
660.19	826.5	6062	1.561882
664.69	822	5800.5	1.561529
669.19	817.5	5697	1.561954
673.69	813	5520.5	1.562425
678.19	808.5	5559	1.562896
682.69	804	5664.5	1.563366
687.19	799.5	5636.5	1.563837
691.69	795	5823.5	1.564308
696.19	790.5	5748	1.564778
700.69	786	5786	1.565249
705.19	781.5	5868	1.565720
709.69	777	6015.5	1.566190
714.19	772.5	5982	1.566661
718.69	768	6006	1.567132
723.19	763.5	6247.5	1.567602
727.69	759	6529	1.568073
732.19	754.5	6204	1.568544
736.69	750	6310.5	1.569014
741.19	745.5	6251	1.569485
745.69	741	6391	1.569956
750.19	736.5	6461.5	1.570426
754.69	732	6548.5	1.570897
759.19	727.5	6639.5	1.571368
763.69	723	6732	1.571838
768.19	718.5	7120	1.572309
772.69	714	6852	1.572780
777.19	709.5	6646.5	1.573251
781.69	705	9666.5	1.573721
786.19	700.5	6929.5	1.574192
790.69	696	6364.5	1.574663
795.19	691.5	6350.5	1.575133
799.69	687	6479.5	1.575604
804.19	682.5	6541.5	1.576075
808.69	678	6327	1.576545
813.19	673.5	6220	1.577016
817.69	669	8335	1.577487
822.19	664.5	10014	1.577957
826.69	660	5609	1.578428
831.19	655.5	5376	1.578899
835.69	651	5198	1.579369
840.19	646.5	5264	1.579840
844.69	642	5309	1.580311
849.19	637.5	5218.5	1.580781
853.69	633	5362	1.581252
858.19	628.5	5319	1.581723
862.69	624	5364	1.582193
867.19	619.5	5448.5	1.582664
871.69	615	5343.5	1.583135
876.19	610.5	5454	1.583605
880.69	606	5513.5	1.584076
885.19	601.5	5567	1.584547
889.69	597	5648.5	1.584443
894.19	592.5	5718.5	1.584029
898.69	588	5631.5	1.583615
903.19	583.5	5735	1.583201
907.69	579	5726	1.582786
912.19	574.5	5830	1.582372
916.69	570	5916	1.581958
921.19	565.5	5905.5	1.581544
925.69	561	5922	1.581130
930.19	556.5	6094.5	1.580715
934.69	552	6143.5	1.580301
939.19	547.5	6290.5	1.579887
943.69	543	5750.5	1.579473
948.19	538.5	5638	1.579059
952.69	534	5979.5	1.578645
957.19	529.5	8430	1.578230
961.69	525	5246.5	1.577816
966.19	520.5	5266.5	1.577402
970.69	516	5392.5	1.576988
975.19	511.5	5529.5	1.576574
979.69	507	5552	1.576159
984.19	502.5	5428.5	1.575745
988.69	498	5524.5	1.575331
993.19	493.5	5359	1.574917
997.69	489	5782.5	1.574503
1002.19	484.5	5185	1.574088
1006.69	480	5215	1.573674
1011.19	475.5	5219.5	1.573260
1015.69	471	5665.5	1.572846
1020.19	466.5	5516.5	1.572432
1024.69	462	5131.5	1.572017
1029.19	457.5	4394	1.571603
1033.69	453	23337.5	1.571189
1038.19	448.5	3355	1.570879
1042.69	444	18368.5	1.570613
1047.19	439.5	1017	1.570346
1051.69	435	823.5	1.570079
1056.19	430.5	809.5	1.569812
1060.69	426	792	1.569545
1065.19	421.5	808	1.569279
1069.69	417	794	1.569012
1074.19	412.5	827	1.568745
1078.69	408	803	1.568478
1083.19	403.5	819.5	1.568211
1087.69	399	808.5	1.567945
1092.19	394.5	821	1.567678
1096.69	390	813.5	1.567411
1101.19	385.5	805.5	1.567144
1105.69	381	826	1.566877
1110.19	376.5	839.5	1.566611
1114.69	372	841.5	1.566344
1119.19	367.5	824.5	1.566077
1123.69	363	802	1.565810
1128.19	358.5	838.5	1.565543
1132.69	354	811	1.565277
1137.19	349.5	853	1.565010
1141.69	345	853.5	1.564743
1146.19	340.5	858	1.564476
1150.69	336	897	1.564209
1155.19	331.5	878.5	1.563943
1159.69	327	906.5	1.563676
1164.19	322.5	871.5	1.563409
1168.69	318	875.5	1.563142
1173.19	313.5	848.5	1.562875
1177.69	309	884	1.562608
1182.19	304.5	909.5	1.562342
1186.69	300	860.5	1.562075
1191.19	295.5	900.5	1.561808
1195.69	291	929	1.561541
1200.19	286.5	1150	1.561274
1204.69	282	880.5	1.561008
1209.19	277.5	872.5	1.560741
1213.69	273	896.5	1.560474
1218.19	268.5	942.5	1.560207
1222.69	264	882	1.559940
1227.19	259.5	929.5	1.559674
1231.69	255	920	1.559407
1236.19	250.5	881.5	1.559128
1240.69	246	928	1.558654
1245.19	241.5	924	1.558179
1249.69	237	936	1.557704
1254.19	232.5	911	1.557229
1258.69	228	913.5	1.556754
1263.19	223.5	924	1.556279
1267.69	219	910	1.555805
1272.19	214.5	979.5	1.555330
1276.69	210	962.5	1.554855
1281.19	205.5	962.5	1.554380
1285.69	201	1038.5	1.553905
1290.19	196.5	986.5	1.553430
1294.69	192	989.5	1.552955
1299.19	187.5	1005	1.552481
1303.69	183	1009.5	1.552006
1308.19	178.5	1008	1.551531
1312.69	174	1002.5	1.551056
1317.19	169.5	1050.5	1.550581
1321.69	165	1035.5	1.550106
1326.19	160.5	1002	1.549632
1330.69	156	1069.5	1.547996
1335.19	151.5	1081	1.543309
1339.69	147	1083	1.538622
1344.19	142.5	1070	1.533935
1348.69	138	1143	1.529248
1353.19	133.5	1096.5	1.524561
1357.69	129	1154	1.519874
1362.19	124.5	1406.5	1.515187
1366.69	120	1144	1.510499
1371.19	115.5	1029	1.505812
1375.69	111	1014.5	1.501125
1380.19	106.5	1068	1.496438
1384.69	102	1099.5	1.491751
1389.19	97.5	1153.5	1.487064
1393.69	93	1191.5	1.482377
1398.19	88.5	1305.5	1.477690
1402.69	84	1363	1.473003
1407.19	79.5	1475.5	1.468316
1411.69	75	1101	1.463629
1416.19	70.5	790.5	1.458942
1420.69	66	619	1.454255
1425.19	61.5	593.5	1.449568
1429.69	57	538	1.444881
1434.19	52.5	594	1.440193
1438.69	48	623.5	1.435506
1443.19	43.5	664	1.430819
1447.69	39	701	1.426132
1452.19	34.5	660	1.421445
1456.69	30	592.5	1.416758
1461.19	25.5	864	1.412071
1465.69	21	946.5	1.410446
1470.19	16.5	1086	1.410446
1474.69	12	73	1.410446
1479.19	7.500000	235.5	1.410446
1483.69	3.000000	83	1.410446
1488.19	-1.500000	3.000000	1.410446
1491.69	-5.000000	2.500000	1.410446