File: KHU_project/ITOwide/wide_pe80
Dataset wide_80:3(ito)
Dwell Time (s)	0.100000
Number of sweeps	10
Kinetic Energy(eV)	Binding Energy(eV)	Intensity(cps)	Transmission Value
286.69	1200	8554	3.522864
291.19	1195.5	8841	3.526372
295.69	1191	8754	3.529880
300.19	1186.5	8637	3.533388
304.69	1182	8663	3.536896
309.19	1177.5	8625	3.540404
313.69	1173	8728	3.543912
318.19	1168.5	8726	3.547420
322.69	1164	8983	3.550928
327.19	1159.5	9168	3.554436
331.69	1155	9311	3.560853
336.19	1150.5	9303	3.568160
340.69	1146	9127	3.575466
345.19	1141.5	8839	3.582773
349.69	1137	8402	3.590079
354.19	1132.5	8159	3.597385
358.69	1128	7978	3.604692
363.19	1123.5	8085	3.611998
367.69	1119	8195	3.619304
372.19	1114.5	8200	3.626611
376.69	1110	8435	3.633917
381.19	1105.5	8613	3.641223
385.69	1101	8566	3.648530
390.19	1096.5	8435	3.655836
394.69	1092	9067	3.663143
399.19	1087.5	12332	3.670449
403.69	1083	10207	3.677755
408.19	1078.5	9636	3.685062
412.69	1074	6886	3.692368
417.19	1069.5	6782	3.699674
421.69	1065	6860	3.706981
426.19	1060.5	7177	3.714287
430.69	1056	6702	3.721594
435.19	1051.5	6600	3.728900
439.69	1047	6402	3.736206
444.19	1042.5	6383	3.743513
448.69	1038	6450	3.750819
453.19	1033.5	6506	3.758125
457.69	1029	6688	3.764997
462.19	1024.5	6622	3.771125
466.69	1020	6827	3.777252
471.19	1015.5	6852	3.783380
475.69	1011	7058	3.789507
480.19	1006.5	7001	3.795635
484.69	1002	7147	3.801763
489.19	997.5	7461	3.807890
493.69	993	7578	3.814018
498.19	988.5	7310	3.820146
502.69	984	7321	3.826273
507.19	979.5	7672	3.832401
511.69	975	9299	3.838528
516.19	970.5	7521	3.844656
520.69	966	6847	3.850784
525.19	961.5	6730	3.856911
529.69	957	6759	3.863039
534.19	952.5	6853	3.869167
538.69	948	6864	3.875294
543.19	943.5	6974	3.881422
547.69	939	7016	3.887549
552.19	934.5	7252	3.893677
556.69	930	7191	3.899805
561.19	925.5	7116	3.905932
565.69	921	7340	3.912060
570.19	916.5	7333	3.918188
574.69	912	7451	3.924315
579.19	907.5	7512	3.930443
583.69	903	7622	3.936571
588.19	898.5	7732	3.942698
592.69	894	7821	3.948826
597.19	889.5	8006	3.954953
601.69	885	8044	3.961081
606.19	880.5	8088	3.967209
610.69	876	8197	3.973336
615.19	871.5	8151	3.979464
619.69	867	8294	3.985592
624.19	862.5	8408	3.991719
628.69	858	8454	3.997847
633.19	853.5	8782	4.003974
637.69	849	8774	4.010102
642.19	844.5	8957	4.016230
646.69	840	8890	4.022357
651.19	835.5	9132	4.028485
655.69	831	9688	4.034613
660.19	826.5	9902	4.040740
664.69	822	9529	4.046868
669.19	817.5	9323	4.049818
673.69	813	9225	4.052585
678.19	808.5	9357	4.055352
682.69	804	9264	4.058119
687.19	799.5	9275	4.060886
691.69	795	9318	4.063653
696.19	790.5	9541	4.066420
700.69	786	9629	4.069187
705.19	781.5	9914	4.071954
709.69	777	9849	4.074721
714.19	772.5	9993	4.077488
718.69	768	10108	4.080255
723.19	763.5	10409	4.083022
727.69	759	11025	4.085789
732.19	754.5	10678	4.088556
736.69	750	10534	4.091323
741.19	745.5	10860	4.094090
745.69	741	10941	4.096857
750.19	736.5	11115	4.099624
754.69	732	11413	4.102391
759.19	727.5	11444	4.105158
763.69	723	11631	4.107925
768.19	718.5	12347	4.110692
772.69	714	11898	4.113460
777.19	709.5	11898	4.116227
781.69	705	16926	4.118994
786.19	700.5	11967	4.121761
790.69	696	11251	4.124528
795.19	691.5	11360	4.127295
799.69	687	11382	4.130062
804.19	682.5	11534	4.132829
808.69	678	11287	4.135596
813.19	673.5	11224	4.138363
817.69	669	15234	4.141130
822.19	664.5	17167	4.143897
826.69	660	10261	4.146664
831.19	655.5	9757	4.149431
835.69	651	9630	4.152198
840.19	646.5	9665	4.154965
844.69	642	9742	4.157732
849.19	637.5	9600	4.160499
853.69	633	9597	4.163266
858.19	628.5	9909	4.166033
862.69	624	9994	4.168800
867.19	619.5	10044	4.171567
871.69	615	10220	4.174334
876.19	610.5	10427	4.177102
880.69	606	10299	4.179869
885.19	601.5	10538	4.182636
889.69	597	10706	4.183736
894.19	592.5	10733	4.183933
898.69	588	11165	4.184131
903.19	583.5	11130	4.184329
907.69	579	11181	4.184526
912.19	574.5	11380	4.184724
916.69	570	11645	4.184921
921.19	565.5	11605	4.185119
925.69	561	11800	4.185316
930.19	556.5	12040	4.185514
934.69	552	12309	4.185712
939.19	547.5	12579	4.185909
943.69	543	11660	4.186107
948.19	538.5	11411	4.186304
952.69	534	12415	4.186502
957.19	529.5	16141	4.186699
961.69	525	10925	4.186897
966.19	520.5	11131	4.187094
970.69	516	11309	4.187292
975.19	511.5	11415	4.187490
979.69	507	11754	4.187687
984.19	502.5	11661	4.187885
988.69	498	11940	4.188082
993.19	493.5	11456	4.188280
997.69	489	12845	4.188477
1002.19	484.5	11265	4.188675
1006.69	480	11308	4.188873
1011.19	475.5	11572	4.189070
1015.69	471	12697	4.189268
1020.19	466.5	12045	4.189465
1024.69	462	11628	4.189663
1029.19	457.5	9823	4.189860
1033.69	453	57162	4.190058
1038.19	448.5	6888	4.191111
1042.69	444	31591	4.192514
1047.19	439.5	2285	4.193917
1051.69	435	1968	4.195320
1056.19	430.5	1878	4.196723
1060.69	426	1946	4.198126
1065.19	421.5	1887	4.199529
1069.69	417	1901	4.200932
1074.19	412.5	1971	4.202335
1078.69	408	1918	4.203738
1083.19	403.5	1916	4.205141
1087.69	399	1984	4.206544
1092.19	394.5	1906	4.207947
1096.69	390	1999	4.209350
1101.19	385.5	1997	4.210753
1105.69	381	2076	4.212156
1110.19	376.5	2036	4.213559
1114.69	372	2015	4.214962
1119.19	367.5	2111	4.216365
1123.69	363	2075	4.217768
1128.19	358.5	2155	4.219170
1132.69	354	2191	4.220573
1137.19	349.5	2157	4.221976
1141.69	345	2221	4.223379
1146.19	340.5	2185	4.224782
1150.69	336	2274	4.226185
1155.19	331.5	2205	4.227588
1159.69	327	2294	4.228991
1164.19	322.5	2269	4.230394
1168.69	318	2390	4.231797
1173.19	313.5	2325	4.233200
1177.69	309	2357	4.234603
1182.19	304.5	2417	4.236006
1186.69	300	2394	4.237409
1191.19	295.5	2455	4.238812
1195.69	291	2567	4.240215
1200.19	286.5	3251	4.241618
1204.69	282	2457	4.243021
1209.19	277.5	2515	4.244424
1213.69	273	2457	4.245827
1218.19	268.5	2544	4.247230
1222.69	264	2522	4.248633
1227.19	259.5	2549	4.250036
1231.69	255	2459	4.251439
1236.19	250.5	2640	4.252819
1240.69	246	2686	4.253822
1245.19	241.5	2611	4.254825
1249.69	237	2645	4.255828
1254.19	232.5	2699	4.256831
1258.69	228	2772	4.257834
1263.19	223.5	2757	4.258836
1267.69	219	2800	4.259839
1272.19	214.5	2841	4.260842
1276.69	210	2895	4.261845
1281.19	205.5	2845	4.262848
1285.69	201	2936	4.263851
1290.19	196.5	2968	4.264854
1294.69	192	3013	4.265857
1299.19	187.5	2946	4.266859
1303.69	183	3113	4.267862
1308.19	178.5	3034	4.268865
1312.69	174	3098	4.269868
1317.19	169.5	3135	4.270871
1321.69	165	3202	4.271874
1326.19	160.5	3236	4.272877
1330.69	156	3190	4.268296
1335.19	151.5	3348	4.249035
1339.69	147	3397	4.229773
1344.19	142.5	3389	4.210512
1348.69	138	3445	4.191251
1353.19	133.5	3505	4.171990
1357.69	129	3509	4.152729
1362.19	124.5	4629	4.133468
1366.69	120	3589	4.114207
1371.19	115.5	3219	4.094945
1375.69	111	3400	4.075684
1380.19	106.5	3456	4.056423
1384.69	102	3633	4.037162
1389.19	97.5	3658	4.017901
1393.69	93	3878	3.998640
1398.19	88.5	4164	3.979379
1402.69	84	4504	3.960118
1407.19	79.5	4781	3.940856
1411.69	75	3534	3.921595
1416.19	70.5	2563	3.902334
1420.69	66	2050	3.883073
1425.19	61.5	1895	3.863812
1429.69	57	1946	3.844551
1434.19	52.5	2027	3.825290
1438.69	48	2124	3.806028
1443.19	43.5	2307	3.786767
1447.69	39	2368	3.767506
1452.19	34.5	2349	3.748245
1456.69	30	2153	3.728984
1461.19	25.5	2509	3.709723
1465.69	21	4066	3.703046
1470.19	16.5	2274	3.703046
1474.69	12	229	3.703046
1479.19	7.500000	829	3.703046
1483.69	3.000000	187	3.703046
1488.19	-1.500000	11	3.703046
1491.69	-5.000000	3.000000	3.703046