File: KHU_project/Photoelectron_Spectroscopy/XPS_Analysis/DNN/.codes/GaN_sessa.txt
4.000000e+02	3.813351e-01
4.037119e+02	3.822122e-01
4.074238e+02	3.830976e-01
4.111357e+02	3.839912e-01
4.148477e+02	3.848936e-01
4.185596e+02	3.858050e-01
4.222715e+02	3.867257e-01
4.259834e+02	3.876560e-01
4.296953e+02	3.885957e-01
4.334072e+02	3.895442e-01
4.371191e+02	3.905010e-01
4.408311e+02	3.914641e-01
4.445430e+02	3.924309e-01
4.482549e+02	3.933983e-01
4.519668e+02	3.943618e-01
4.556787e+02	3.953202e-01
4.593906e+02	3.962796e-01
4.631025e+02	3.972722e-01
4.668145e+02	3.984151e-01
4.705264e+02	4.001739e-01
4.742383e+02	4.048105e-01
4.779502e+02	4.095010e-01
4.816621e+02	4.036704e-01
4.853740e+02	4.028117e-01
4.890859e+02	4.041541e-01
4.927979e+02	4.097425e-01
4.965098e+02	4.229814e-01
5.002217e+02	4.104203e-01
5.039336e+02	4.059081e-01
5.076455e+02	4.066943e-01
5.113574e+02	4.139932e-01
5.150693e+02	4.413982e-01
5.187812e+02	4.246479e-01
5.224932e+02	4.087523e-01
5.262051e+02	4.050325e-01
5.299170e+02	4.041577e-01
5.336289e+02	4.041780e-01
5.373408e+02	4.045632e-01
5.410527e+02	4.051261e-01
5.447646e+02	4.057870e-01
5.484766e+02	4.065079e-01
5.521885e+02	4.072675e-01
5.559004e+02	4.080548e-01
5.596123e+02	4.088623e-01
5.633242e+02	4.096849e-01
5.670361e+02	4.105201e-01
5.707480e+02	4.113655e-01
5.744600e+02	4.122198e-01
5.781719e+02	4.130816e-01
5.818838e+02	4.139502e-01
5.855957e+02	4.148253e-01
5.893076e+02	4.157058e-01
5.930195e+02	4.165918e-01
5.967314e+02	4.174829e-01
6.004434e+02	4.183786e-01
6.041553e+02	4.192791e-01
6.078672e+02	4.201839e-01
6.115791e+02	4.210928e-01
6.152910e+02	4.220058e-01
6.190029e+02	4.229229e-01
6.227148e+02	4.238437e-01
6.264268e+02	4.247684e-01
6.301387e+02	4.256966e-01
6.338506e+02	4.266283e-01
6.375625e+02	4.275635e-01
6.412744e+02	4.285020e-01
6.449863e+02	4.294437e-01
6.486982e+02	4.303885e-01
6.524102e+02	4.313361e-01
6.561221e+02	4.322867e-01
6.598340e+02	4.332400e-01
6.635459e+02	4.341958e-01
6.672578e+02	4.351540e-01
6.709697e+02	4.361147e-01
6.746816e+02	4.370776e-01
6.783936e+02	4.380420e-01
6.821055e+02	4.390087e-01
6.858174e+02	4.399766e-01
6.895293e+02	4.409462e-01
6.932412e+02	4.419168e-01
6.969531e+02	4.428881e-01
7.006650e+02	4.438604e-01
7.043770e+02	4.448330e-01
7.080889e+02	4.458056e-01
7.118008e+02	4.467781e-01
7.155127e+02	4.477501e-01
7.192246e+02	4.487211e-01
7.229365e+02	4.496909e-01
7.266484e+02	4.506593e-01
7.303604e+02	4.516253e-01
7.340723e+02	4.525891e-01
7.377842e+02	4.535499e-01
7.414961e+02	4.545072e-01
7.452080e+02	4.554606e-01
7.489199e+02	4.564092e-01
7.526318e+02	4.573528e-01
7.563438e+02	4.582906e-01
7.600557e+02	4.592218e-01
7.637676e+02	4.601458e-01
7.674795e+02	4.610618e-01
7.711914e+02	4.619692e-01
7.749033e+02	4.628668e-01
7.786152e+02	4.637540e-01
7.823271e+02	4.646295e-01
7.860391e+02	4.654925e-01
7.897510e+02	4.663419e-01
7.934629e+02	4.671766e-01
7.971748e+02	4.679953e-01
8.008867e+02	4.687968e-01
8.045986e+02	4.695797e-01
8.083105e+02	4.703426e-01
8.120225e+02	4.710842e-01
8.157344e+02	4.718026e-01
8.194463e+02	4.724965e-01
8.231582e+02	4.731643e-01
8.268701e+02	4.738044e-01
8.305820e+02	4.744150e-01
8.342939e+02	4.749943e-01
8.380059e+02	4.755405e-01
8.417178e+02	4.760512e-01
8.454297e+02	4.765233e-01
8.491416e+02	4.769517e-01
8.528535e+02	4.773287e-01
8.565654e+02	4.776436e-01
8.602773e+02	4.778787e-01
8.639893e+02	4.780131e-01
8.677012e+02	4.780216e-01
8.714131e+02	4.778844e-01
8.751250e+02	4.776090e-01
8.788369e+02	4.772889e-01
8.825488e+02	4.773108e-01
8.862607e+02	4.793883e-01
8.899727e+02	4.894968e-01
8.936846e+02	4.824266e-01
8.973965e+02	4.748004e-01
9.011084e+02	4.722474e-01
9.048203e+02	4.707029e-01
9.085322e+02	4.694737e-01
9.122441e+02	4.691305e-01
9.159561e+02	4.732741e-01
9.196680e+02	4.783317e-01
9.233799e+02	4.828255e-01
9.270918e+02	4.640084e-01
9.308037e+02	4.558708e-01
9.345156e+02	4.520541e-01
9.382275e+02	4.528789e-01
9.419395e+02	5.270661e-01
9.456514e+02	4.879750e-01
9.493633e+02	4.532406e-01
9.530752e+02	4.388307e-01
9.567871e+02	4.295165e-01
9.604990e+02	4.243485e-01
9.642109e+02	4.202464e-01
9.679229e+02	4.180906e-01
9.716348e+02	4.252686e-01
9.753467e+02	4.416376e-01
9.790586e+02	4.547635e-01
9.827705e+02	4.221519e-01
9.864824e+02	3.946513e-01
9.901943e+02	3.851610e-01
9.939062e+02	3.805086e-01
9.976182e+02	3.804721e-01
1.001330e+03	3.899378e-01
1.005042e+03	3.919771e-01
1.008754e+03	3.855571e-01
1.012466e+03	3.649435e-01
1.016178e+03	3.579066e-01
1.019890e+03	3.541562e-01
1.023602e+03	3.512908e-01
1.027313e+03	3.486529e-01
1.031025e+03	3.459625e-01
1.034737e+03	3.430223e-01
1.038449e+03	3.396274e-01
1.042161e+03	3.355340e-01
1.045873e+03	3.304694e-01
1.049585e+03	3.242094e-01
1.053297e+03	3.167962e-01
1.057009e+03	3.091628e-01
1.060721e+03	3.053491e-01
1.064433e+03	3.237169e-01
1.068145e+03	4.227468e-01
1.071856e+03	3.392264e-01
1.075568e+03	3.092794e-01
1.079280e+03	2.479376e-01
1.082992e+03	2.288700e-01
1.086704e+03	2.323407e-01
1.090416e+03	2.648426e-01
1.094128e+03	2.674700e-01
1.097840e+03	2.484157e-01
1.101552e+03	1.997699e-01
1.105264e+03	1.891884e-01
1.108976e+03	1.783653e-01
1.112688e+03	1.772812e-01
1.116399e+03	1.924946e-01
1.120111e+03	1.807104e-01
1.123823e+03	1.675308e-01
1.127535e+03	1.638271e-01
1.131247e+03	1.623945e-01
1.134959e+03	1.616625e-01
1.138671e+03	1.611761e-01
1.142383e+03	1.607827e-01
1.146095e+03	1.605210e-01
1.149807e+03	1.608391e-01
1.153519e+03	1.639293e-01
1.157230e+03	1.703192e-01
1.160942e+03	1.755747e-01
1.164654e+03	1.674048e-01
1.168366e+03	1.597373e-01
1.172078e+03	1.577930e-01
1.175790e+03	1.569539e-01
1.179502e+03	1.561022e-01
1.183214e+03	1.548277e-01
1.186926e+03	1.529927e-01
1.190638e+03	1.508708e-01
1.194350e+03	1.501359e-01
1.198062e+03	1.623604e-01
1.201773e+03	6.923968e-01
1.205485e+03	1.785055e-01
1.209197e+03	1.396662e-01
1.212909e+03	1.332679e-01
1.216621e+03	1.308539e-01
1.220333e+03	1.294265e-01
1.224045e+03	1.282497e-01
1.227757e+03	1.270394e-01
1.231469e+03	1.256622e-01
1.235181e+03	1.241111e-01
1.238893e+03	1.226398e-01
1.242604e+03	1.223294e-01
1.246316e+03	1.279864e-01
1.250028e+03	1.559812e-01
1.253740e+03	1.356340e-01
1.257452e+03	1.155606e-01
1.261164e+03	1.097493e-01
1.264876e+03	1.078282e-01
1.268588e+03	1.098181e-01
1.272300e+03	1.190795e-01
1.276012e+03	1.081501e-01
1.279724e+03	1.027062e-01
1.283436e+03	1.008665e-01
1.287147e+03	9.989441e-02
1.290859e+03	9.917400e-02
1.294571e+03	9.849217e-02
1.298283e+03	9.772541e-02
1.301995e+03	9.676434e-02
1.305707e+03	9.549604e-02
1.309419e+03	9.381221e-02
1.313131e+03	9.165043e-02
1.316843e+03	8.909990e-02
1.320555e+03	8.686916e-02
1.324267e+03	9.228025e-02
1.327979e+03	1.558094e-01
1.331690e+03	8.125496e-02
1.335402e+03	7.761207e-02
1.339114e+03	7.634743e-02
1.342826e+03	7.548817e-02
1.346538e+03	7.468199e-02
1.350250e+03	7.377405e-02
1.353962e+03	7.262171e-02
1.357674e+03	7.104496e-02
1.361386e+03	6.881264e-02
1.365098e+03	6.565791e-02
1.368810e+03	6.134276e-02
1.372521e+03	5.582342e-02
1.376233e+03	4.979697e-02
1.379945e+03	4.946586e-02
1.383657e+03	1.582050e-01
1.387369e+03	1.928216e-01
1.391081e+03	3.106066e-02
1.394793e+03	2.404589e-02
1.398505e+03	2.219508e-02
1.402217e+03	2.137225e-02
1.405929e+03	2.088932e-02
1.409641e+03	2.054700e-02
1.413353e+03	2.026651e-02
1.417064e+03	2.000763e-02
1.420776e+03	1.974306e-02
1.424488e+03	1.944865e-02
1.428200e+03	1.909932e-02
1.431912e+03	1.867011e-02
1.435624e+03	1.815155e-02
1.439336e+03	1.765832e-02
1.443048e+03	1.963555e-02
1.446760e+03	1.985751e-02
1.450472e+03	1.766130e-02
1.454184e+03	1.200231e-02
1.457896e+03	9.677379e-03
1.461607e+03	7.963453e-03
1.465319e+03	1.470150e-02
1.469031e+03	4.944047e-02
1.472743e+03	3.519493e-03
1.476455e+03	9.730546e-04
1.480167e+03	3.214964e-04
1.483879e+03	6.295280e-05
1.485470e+03	0.000000e+00